# f/kHz  U_A/mV
#
20.8      76
21.9      84
23.2      94
24.7     108
25.5     120
26.5     132
27.9     160
28.8     180
29.7     212
30.9     280
31.6     324
32.5     440
33.6     680
34.2     980
34.5    1240
35.2    3240
35.4    5040
35.5    5360
35.8    3540
36      2560
36.4    1480
37       860
38       576
39.3     408
41       280